# XDI/1.0 Demeter/0.9.26
# Demeter.output_filetype: multicolumn normalized mu(E)
# Element.symbol: Fe
# Element.edge: K
# Column.1: energy eV
# Column.2: FE_FOIL_END_038_I2.avg
# Column.3: FE_FOILCAL_030_I2.avg
# Column.4: Fe_foilCal_007_Mar_17.avg
# Column.5: Fe_Pyrite_NMNH_tr_2sc_2_15.avg
#------------------------
#  energy  FE_FOIL_END_038_I2.avg  FE_FOILCAL_030_I2.avg  Fe_foilCal_007_Mar_17.avg  Fe_Pyrite_NMNH_tr_2sc_2_15.avg
  7100.0000      -0.17864992       0.14747919       0.37501813E-02   0.67952016E-02
  7100.5000      -0.16147670       0.13287152       0.22180630E-02   0.71322806E-02
  7101.0000      -0.14429382       0.11829386       0.13798207E-02   0.61495018E-02
  7101.5000      -0.12713800       0.10371390      -0.22962720E-03   0.59747958E-02
  7102.0000      -0.11008010       0.89173181E-01   0.63024574E-03   0.65893780E-02
  7102.5000      -0.93011886E-01   0.74668250E-01   0.11128759E-02   0.68277621E-02
  7103.0000      -0.75997787E-01   0.60207761E-01  -0.11726831E-02   0.74050799E-02
  7103.5000      -0.59044242E-01   0.45828079E-01  -0.77783251E-03   0.81167662E-02
  7104.0000      -0.42168646E-01   0.31472061E-01  -0.69543510E-03   0.86585119E-02
  7104.5000      -0.25394188E-01   0.17215319E-01  -0.22743490E-03   0.95418650E-02
  7105.0000      -0.86654689E-02   0.30122555E-02  -0.27063178E-02   0.99348915E-02
  7105.5000       0.78983360E-02  -0.11079411E-01  -0.12790131E-02   0.10686313E-01
  7106.0000       0.24291428E-01  -0.25035439E-01   0.48268967E-03   0.11235843E-01
  7106.5000       0.40511876E-01  -0.38837359E-01   0.34827103E-02   0.12319023E-01
  7107.0000       0.56484951E-01  -0.52481707E-01   0.43969229E-02   0.13307096E-01
  7107.5000       0.72037366E-01  -0.65812643E-01   0.54553447E-02   0.14298350E-01
  7108.0000       0.87225164E-01  -0.78877497E-01   0.70456685E-02   0.15348699E-01
  7108.5000       0.10178680      -0.91490991E-01   0.13108567E-01   0.16826658E-01
  7109.0000       0.11514895      -0.10330393       0.18312479E-01   0.17955666E-01
  7109.5000       0.12684004      -0.11412930       0.26059908E-01   0.19466455E-01
  7110.0000       0.13524250      -0.12308344       0.37900578E-01   0.22203011E-01
  7110.5000       0.13586113      -0.12775832       0.61335456E-01   0.25624035E-01
  7111.0000       0.12236796      -0.12451076       0.99045997E-01   0.30103049E-01
  7111.5000       0.90814702E-01  -0.10687627       0.16281451       0.36736902E-01
  7112.0000       0.51404169E-01  -0.73662957E-01   0.23666094       0.50585228E-01
  7112.5000       0.24194740E-01  -0.42188708E-01   0.30815002       0.73899226E-01
  7113.0000       0.81814676E-02  -0.21181719E-01   0.36782336       0.99928382E-01
  7113.5000      -0.29636030E-02  -0.74533119E-02   0.40610254       0.11983250
  7114.0000      -0.96798145E-02   0.87889487E-03   0.44067512       0.12704600
  7114.5000      -0.13403728E-01   0.73124092E-02   0.46948874       0.12731877
  7115.0000      -0.13230245E-01   0.11190434E-01   0.49604099       0.12794814
  7115.5000      -0.70592813E-02   0.93674244E-02   0.51478087       0.12536597
  7116.0000       0.35179943E-02   0.26394913E-02   0.52556102       0.12414664
  7116.5000       0.15905466E-01  -0.71504113E-02   0.53592945       0.13446426
  7117.0000       0.25735472E-01  -0.16665574E-01   0.54247634       0.16499534
  7117.5000       0.28492188E-01  -0.22218357E-01   0.55603305       0.22176832
  7118.0000       0.20948182E-01  -0.19603387E-01   0.57386587       0.31867786
  7118.5000       0.34835320E-02  -0.68143666E-02   0.60602034       0.44332371
  7119.0000      -0.16454837E-01   0.10620998E-01   0.63898049       0.53798439
  7119.5000      -0.38254938E-01   0.30442447E-01   0.68085967       0.60812163
  7120.0000      -0.62168007E-01   0.51976983E-01   0.71791725       0.67942215
  7120.5000      -0.89591953E-01   0.76960781E-01   0.75295381       0.74275161
  7121.0000      -0.11616556       0.10146494       0.78506229       0.77656771
  7121.5000      -0.14127039       0.12465369       0.81821995       0.78666793
  7122.0000      -0.16207199       0.14480760       0.84457470       0.78373508
  7122.5000      -0.17996181       0.16206057       0.86879766       0.78193675
  7123.0000      -0.19291707       0.17419852       0.88606096       0.78902468
  7123.5000      -0.20209090       0.18320294       0.90342876       0.80130797
  7124.0000      -0.20851400       0.18959501       0.91333530       0.81275120
  7124.5000      -0.21329440       0.19469650       0.92524824       0.82468825
  7125.0000       -1.7678874        1.1972439       0.93286624       0.83968530
  7125.5000       -1.7691633        1.1988304       0.94274144       0.85535624
  7126.0000       -1.7698853        1.2000797       0.94938760       0.86832051
  7126.5000       -1.7709938        1.2013689       0.95474842       0.87770319
  7127.0000       -1.7743118        1.2040381       0.96133188       0.88777600
  7127.5000       -1.7788667        1.2073134       0.96863639       0.90089935
  7128.0000       -1.7859340        1.2125165       0.97438385       0.91326488
  7128.5000       -1.7952109        1.2196646       0.98499054       0.92240523
  7129.0000       -1.8064140        1.2290061       0.99239955       0.93159398
  7129.5000       -1.8190729        1.2404024        1.0005923       0.94240463
  7130.0000       -1.8291551        1.2498651        1.0099659       0.95492146
  7130.5000       -1.8349275        1.2567305        1.0186289       0.96830406
  7131.0000       -1.8330856        1.2581241        1.0235822       0.98158784
  7131.5000       -1.8206917        1.2522625        1.0281383       0.99508349
  7132.0000       -1.7969599        1.2367966        1.0315555        1.0089728
  7132.5000       -1.7640611        1.2124420        1.0291729        1.0209034
  7133.0000       -1.7255901        1.1816229        1.0242196        1.0315993
  7133.5000       -1.6842910        1.1473407        1.0194022        1.0423514
  7134.0000       -1.6435718        1.1124351        1.0140414        1.0529898
  7134.5000       -1.6050878        1.0787359        1.0049604        1.0640201
  7135.0000       -1.5689166        1.0465778       0.99941146        1.0724145
  7135.5000       -1.5374609        1.0181251       0.99438504        1.0800879
  7136.0000       -1.5099283       0.99276623       0.99248315        1.0849620
  7136.5000       -1.4859839       0.97059916       0.98893017        1.0889869
  7137.0000       -1.4650480       0.95125452       0.98636993        1.0911397
  7137.5000       -1.4470173       0.93464575       0.98638038        1.0934046
  7138.0000       -1.4317181       0.92059391       0.98674613        1.0938986
  7138.5000       -1.4187251       0.90886813       0.98906602        1.0941395
  7139.0000       -1.4073103       0.89881618       0.99022596        1.0933951
  7139.5000       -1.3970423       0.88988398       0.99138591        1.0911752
  7140.0000       -1.3867098       0.88122882       0.99254585        1.0889797
